#  Scd SED of Coleman, Wu, and Weedman (1980)
#  Extended below 1400 A and beyond 10000 A by
#  Bolzonella, Miralles, and Pello (2000) using evolutionary models
#  of Bruzual and Charlot (1993)
#
#  Obtained from ZPHOT code at
#  'http://webast.ast.obs-mip.fr/hyperz/zphot_src_1.1.tar.gz'
#
#  Truncated to wavelengths less than 22050 Angstroms, and thinned by
#  galsim.utilities.thin_tabulated_values to a relative error of 1.e-3
#  with fast_search=False.  See devel/modules/getSEDs.py for details.
#
#  Angstroms     Flux/A
#
      91.00       1.86857
     159.00      25.45436
     257.00      46.87380
     264.00      56.90791
     318.00      68.43712
     348.00      68.06178
     366.00     143.38010
     375.00     140.44000
     385.00     112.78990
     395.00     167.58960
     405.00     207.81360
     430.00     175.78460
     441.00     203.24700
     470.00     180.60140
     480.00     201.87070
     490.00     167.52710
     500.00     207.00040
     506.00     172.96950
     512.00     298.95890
     530.00     255.73210
     540.00     209.00220
     550.00     204.06020
     570.00     293.89180
     580.00     281.56810
     590.00     284.00780
     600.00     232.14820
     610.00     229.20810
     620.00     286.00960
     640.00     287.94890
     650.00     274.12380
     658.00     248.28790
     675.00     289.26260
     685.00     241.34410
     695.00     281.00510
     705.00     220.13730
     716.00     284.32060
     735.00     280.88000
     745.00     268.74400
     755.00     264.11470
     765.00     235.77650
     775.00     259.29790
     785.00     237.65320
     815.00     251.41570
     825.00     253.60520
     835.00     195.36480
     845.00     242.21990
     855.00     236.02670
     895.00     238.46650
     915.00     237.40300
     935.00    1015.29700
     945.00    1450.06600
     955.00    1742.20600
     965.00    1891.71700
     975.00     570.45530
     985.00    1465.08000
     995.00    1442.55900
    1005.00    1899.85000
    1015.00    1892.34300
    1025.00    1132.27800
    1035.00    1513.87400
    1045.00    2295.83400
    1055.00    2193.86600
    1065.00    1779.74100
    1075.00    2000.56600
    1085.00    1672.76800
    1095.00    2033.72100
    1115.00    1851.05500
    1125.00    1616.46700
    1135.00    1969.28800
    1145.00    1809.76800
    1155.00    1848.55300
    1165.00    1842.92300
    1175.00    1229.86600
    1185.00    1737.20200
    1195.00    1351.22700
    1215.00     815.74050
    1225.00    1286.16700
    1235.00    1694.03800
    1245.00    1785.37100
    1255.00    1704.67200
    1265.00    1543.27600
    1275.00    1839.79500
    1285.00    1885.46100
    1295.00    1542.65000
    1305.00    1525.13400
    1315.00    1809.76800
    1325.00    1717.18400
    1335.00    1552.65900
    1345.00    1749.08800
    1355.00    1685.28000
    1365.00    1521.38100
    1375.00    1552.03400
    1385.00    1541.39900
    1395.00    1242.37800
    1405.00    1253.63800
    1415.00    1402.52300
    1435.00    1403.77400
    1442.00    1451.31800
    1447.00    1460.07500
    1465.00    1300.55600
    1475.00    1296.80200
    1495.00    1306.18600
    1505.00    1228.61500
    1512.00    1102.87600
    1517.00    1162.30500
    1525.00    1129.77600
    1535.00     969.63020
    1545.00     981.51600
    1555.00     940.85400
    1565.00     991.52500
    1585.00    1087.23700
    1615.00    1055.33300
    1625.00    1008.41500
    1635.00    1060.96300
    1645.00    1066.59300
    1655.00    1001.53400
    1665.00    1062.84000
    1672.00     956.49320
    1677.00    1076.60200
    1685.00    1094.11800
    1695.00    1027.18200
    1715.00     930.21940
    1725.00     915.20570
    1735.00     965.25120
    1745.00     940.22850
    1755.00     980.89040
    1765.00     912.07790
    1775.00     911.45240
    1800.00     964.00000
    1900.00     924.00000
    2000.00     855.00000
    2100.00     780.00000
    2200.00     718.00000
    2300.00     672.00000
    2400.00     632.00000
    2500.00     600.00000
    2600.00     579.00000
    2700.00     570.00000
    2800.00     571.00000
    2980.00     588.00000
    3100.00     603.00000
    3180.00     612.00000
    3300.00     620.00000
    3500.00     646.00000
    3540.00     656.00000
    3580.00     642.00000
    3620.00     622.00000
    3660.00     638.00000
    3700.00     805.00000
    3740.00     884.00000
    3780.00     771.00000
    3820.00     776.00000
    3860.00     839.00000
    3900.00     851.00000
    3940.00     831.00000
    3980.00     878.00000
    4020.00     968.00000
    4060.00     967.00000
    4100.00     914.00000
    4140.00     935.00000
    4180.00     975.00000
    4220.00     976.00000
    4300.00     925.00000
    4340.00     935.00000
    4380.00     962.00000
    4420.00     976.00000
    4460.00     997.00000
    4500.00    1005.00000
    4540.00     999.00000
    4580.00    1006.00000
    4620.00    1008.00000
    4740.00     986.00000
    4780.00     981.00000
    4820.00     987.00000
    4860.00    1015.00000
    4900.00     982.00000
    4940.00     980.00000
    4980.00    1095.00000
    5020.00    1074.00000
    5060.00     940.00000
    5100.00     908.00000
    5180.00     886.00000
    5300.00     886.00000
    5340.00     860.00000
    5380.00     856.00000
    5420.00     895.00000
    5460.00     912.00000
    5540.00     856.00000
    5620.00     847.00000
    5740.00     846.00000
    5820.00     838.00000
    6220.00     785.00000
    6780.00     719.00000
    7140.00     681.00000
    7340.00     661.00000
    7940.00     607.00000
    8700.00     545.00000
    9200.00     507.00000
    9500.00     486.00000
    9800.00     467.00000
    9900.00     461.00000
   10000.00     461.00000
   10075.00     448.59900
   10125.00     456.22160
   10175.00     450.64690
   10225.00     450.98820
   10375.00     440.29370
   10475.00     434.26390
   10575.00     423.79690
   10675.00     413.67130
   10725.00     414.80900
   10975.00     391.82720
   11175.00     380.56390
   11325.00     373.05510
   11425.00     366.22880
   11525.00     367.48030
   11675.00     356.10310
   11725.00     357.35460
   11825.00     346.43260
   11875.00     340.74410
   11925.00     345.29490
   11975.00     333.91780
   12025.00     339.15130
   12075.00     335.16930
   12125.00     334.71420
   12175.00     334.94180
   12275.00     329.13950
   12575.00     314.69050
   12725.00     309.00200
   12775.00     307.97810
   12825.00     295.23570
   12875.00     301.83440
   12975.00     300.81050
   13025.00     296.48720
   13125.00     291.25370
   13325.00     284.99630
   13375.00     281.69700
   13425.00     282.15200
   13475.00     279.42150
   13575.00     273.05040
   13825.00     272.02640
   13875.00     269.06840
   13925.00     257.91880
   14075.00     254.73320
   14125.00     251.54760
   14225.00     249.95480
   14275.00     246.54170
   14375.00     251.43390
   14425.00     245.17650
   14475.00     249.72730
   14620.00     242.55970
   14675.00     241.42200
   14775.00     239.94300
   14875.00     238.46400
   14925.00     243.46990
   14975.00     240.96690
   15075.00     238.12270
   15125.00     241.64960
   15375.00     241.42200
   15425.00     239.71550
   15475.00     240.05680
   15575.00     229.36230
   15675.00     230.27250
   15725.00     235.39220
   15775.00     220.71570
   15825.00     220.14690
   15875.00     219.12290
   15925.00     226.74560
   15975.00     221.62590
   16050.00     219.91930
   16150.00     223.10490
   16250.00     216.05110
   16350.00     223.67370
   16450.00     211.27270
   16550.00     219.00910
   16650.00     211.61400
   16750.00     212.41040
   16850.00     206.49430
   16950.00     208.54220
   17050.00     204.21890
   17150.00     201.60220
   17350.00     191.13530
   17450.00     190.68020
   17850.00     177.36900
   18150.00     166.10560
   18250.00     164.05780
   18650.00     153.13570
   18750.00     149.60880
   18850.00     148.92620
   18950.00     143.57900
   19050.00     144.83050
   19150.00     141.75860
   19450.00     132.31560
   19650.00     129.58510
   19750.00     126.28580
   20150.00     121.05230
   20250.00     117.98050
   20550.00     114.33980
   21150.00     105.43160
   21450.00     101.65440
   22050.00      92.43892
